vel[km/s] freq[MHz]   fv[mJy]      polyfit
 -1738.4  1428.690096 -1275.0000   -44.0490
 -1730.2  1428.651034 -1142.0000   -44.1726
 -1722.1  1428.611971  -981.2000   -44.2925
 -1713.9  1428.572909  -853.6000   -44.4090
 -1705.8  1428.533846  -797.8000   -44.5219
 -1697.6  1428.494784  -781.4000   -44.6314
 -1689.5  1428.455721  -692.0000   -44.7374
 -1681.3  1428.416659  -565.1000   -44.8401
 -1673.1  1428.377596  -495.1000   -44.9395
 -1665.0  1428.338534  -460.0000   -45.0356
 -1656.8  1428.299471  -428.5000   -45.1284
 -1648.7  1428.260409  -364.1000   -45.2180
 -1640.5  1428.221346  -269.3000   -45.3044
 -1632.4  1428.182284  -201.5000   -45.3877
 -1624.2  1428.143221  -161.6000   -45.4679
 -1616.1  1428.104159  -113.0000   -45.5451
 -1607.9  1428.065096   -68.5500   -45.6192
 -1599.8  1428.026034   -61.4100   -45.6904
 -1591.6  1427.986971   -47.9500   -45.7586
 -1583.4  1427.947909   -28.1600   -45.8239
 -1575.3  1427.908846   -24.6500   -45.8864
 -1567.1  1427.869784   -23.9600   -45.9460
 -1559.0  1427.830721   -28.0900   -46.0028
 -1550.8  1427.791659   -25.3100   -46.0569
 -1542.6  1427.752596   -21.7000   -46.1083
 -1534.5  1427.713534   -20.9100   -46.1570
 -1526.3  1427.674471    -6.9020   -46.2031
 -1518.2  1427.635409     1.4080   -46.2466
 -1510.0  1427.596346    -9.7920   -46.2875
 -1501.8  1427.557284   -29.9300   -46.3259
 -1493.7  1427.518221   -57.1300   -46.3618
 -1485.5  1427.479159   -72.7300   -46.3952
 -1477.4  1427.440096   -65.5600   -46.4262
 -1469.2  1427.401034   -43.2300   -46.4549
 -1461.0  1427.361971   -36.1500   -46.4812
 -1452.9  1427.322909   -51.6100   -46.5052
 -1444.7  1427.283846   -42.2700   -46.5269
 -1436.5  1427.244784   -31.0000   -46.5463
 -1428.4  1427.205721   -46.7900   -46.5636
 -1420.2  1427.166659   -51.1500   -46.5787
 -1412.0  1427.127596   -50.3400   -46.5916
 -1403.9  1427.088534   -77.8700   -46.6025
 -1395.7  1427.049471  -102.2000   -46.6112
 -1387.5  1427.010409  -100.8000   -46.6180
 -1379.4  1426.971346   -94.8500   -46.6227
 -1371.2  1426.932284   -72.3100   -46.6255
 -1363.0  1426.893221   -48.6500   -46.6263
 -1354.8  1426.854159   -54.2500   -46.6253
 -1346.7  1426.815096   -65.4800   -46.6223
 -1338.5  1426.776034   -61.9100   -46.6176
 -1330.3  1426.736971   -52.6500   -46.6110
 -1322.2  1426.697909   -39.5400   -46.6026
 -1314.0  1426.658846   -22.5300   -46.5925
 -1305.8  1426.619784   -29.7200   -46.5808
 -1297.6  1426.580721   -53.5700   -46.5673
 -1289.5  1426.541659   -64.7400   -46.5522
 -1281.3  1426.502596   -64.3500   -46.5354
 -1273.1  1426.463534   -53.6000   -46.5171
 -1264.9  1426.424471   -53.2900   -46.4973
 -1256.8  1426.385409   -68.4500   -46.4759
 -1248.6  1426.346346   -63.9700   -46.4530
 -1240.4  1426.307284   -38.0700   -46.4287
 -1232.2  1426.268221   -16.9200   -46.4030
 -1224.1  1426.229159   -10.9000   -46.3758
 -1215.9  1426.190096   -28.5600   -46.3473
 -1207.7  1426.151034   -50.9700   -46.3174
 -1199.5  1426.111971   -50.5300   -46.2863
 -1191.4  1426.072909   -40.9700   -46.2538
 -1183.2  1426.033846   -34.6500   -46.2201
 -1175.0  1425.994784   -39.3500   -46.1852
 -1166.8  1425.955721   -38.1700   -46.1491
 -1158.6  1425.916659   -14.4600   -46.1118
 -1150.5  1425.877596   -13.0200   -46.0734
 -1142.3  1425.838534   -32.8100   -46.0339
 -1134.1  1425.799471   -45.2400   -45.9933
 -1125.9  1425.760409   -55.5700   -45.9517
 -1117.7  1425.721346   -57.8000   -45.9090
 -1109.5  1425.682284   -48.1400   -45.8653
 -1101.4  1425.643221   -27.2400   -45.8207
 -1093.2  1425.604159   -24.1800   -45.7751
 -1085.0  1425.565096   -39.6300   -45.7286
 -1076.8  1425.526034   -31.8700   -45.6812
 -1068.6  1425.486971   -17.6200   -45.6330
 -1060.4  1425.447909   -10.4100   -45.5839
 -1052.2  1425.408846    -7.0920   -45.5340
 -1044.1  1425.369784   -23.5000   -45.4833
 -1035.9  1425.330721   -39.0000   -45.4319
 -1027.7  1425.291659   -37.7200   -45.3797
 -1019.5  1425.252596   -37.9200   -45.3269
 -1011.3  1425.213534   -40.5800   -45.2733
 -1003.1  1425.174471   -37.6600   -45.2191
  -994.9  1425.135409   -45.7700   -45.1642
  -986.7  1425.096346   -56.8800   -45.1088
  -978.5  1425.057284   -45.2600   -45.0528
  -970.4  1425.018221   -21.2000   -44.9962
  -962.2  1424.979159   -12.1200   -44.9390
  -954.0  1424.940096   -15.6300   -44.8814
  -945.8  1424.901034   -14.0200   -44.8233
  -937.6  1424.861971   -23.4900   -44.7647
  -929.4  1424.822909   -37.5100   -44.7056
  -921.2  1424.783846   -46.9400   -44.6462
  -913.0  1424.744784   -55.1800   -44.5864
  -904.8  1424.705721   -57.8900   -44.5261
  -896.6  1424.666659   -67.4900   -44.4656
  -888.4  1424.627596   -75.6000   -44.4047
  -880.2  1424.588534   -66.6300   -44.3435
  -872.0  1424.549471   -56.2100   -44.2820
  -863.8  1424.510409   -69.6600   -44.2203
  -855.6  1424.471346   -79.1100   -44.1583
  -847.4  1424.432284   -62.3200   -44.0961
  -839.2  1424.393221   -59.4900   -44.0337
  -831.0  1424.354159   -71.2800   -43.9711
  -822.8  1424.315096   -67.3900   -43.9084
  -814.6  1424.276034   -66.2600   -43.8455
  -806.4  1424.236971   -64.6600   -43.7826
  -798.2  1424.197909   -49.5200   -43.7195
  -790.0  1424.158846   -35.9400   -43.6564
  -781.8  1424.119784   -38.4900   -43.5932
  -773.6  1424.080721   -74.8700   -43.5299
  -765.4  1424.041659   -93.9500   -43.4667
  -757.2  1424.002596   -78.4500   -43.4035
  -749.0  1423.963534   -79.6300   -43.3402
  -740.8  1423.924471   -83.3200   -43.2771
  -732.6  1423.885409   -82.1900   -43.2140
  -724.4  1423.846346   -80.5800   -43.1509
  -716.2  1423.807284   -53.3500   -43.0880
  -708.0  1423.768221   -26.3900   -43.0252
  -699.8  1423.729159   -32.2200   -42.9625
  -691.6  1423.690096   -49.2300   -42.9000
  -683.4  1423.651034   -52.9700   -42.8376
  -675.2  1423.611971   -48.6400   -42.7755
  -667.0  1423.572909   -47.6200   -42.7135
  -658.8  1423.533846   -47.7400   -42.6518
  -650.5  1423.494784   -54.9600   -42.5903
  -642.3  1423.455721   -59.6300   -42.5290
  -634.1  1423.416659   -58.9200   -42.4681
  -625.9  1423.377596   -59.0500   -42.4074
  -617.7  1423.338534   -53.1600   -42.3470
  -609.5  1423.299471   -50.6000   -42.2869
  -601.3  1423.260409   -46.4700   -42.2272
  -593.1  1423.221346   -38.5700   -42.1678
  -584.9  1423.182284   -34.4900   -42.1088
  -576.7  1423.143221   -39.7700   -42.0502
  -568.4  1423.104159   -45.4300   -41.9920
  -560.2  1423.065096   -39.0400   -41.9342
  -552.0  1423.026034   -36.9000   -41.8768
  -543.8  1422.986971   -40.2200   -41.8199
  -535.6  1422.947909   -48.5400   -41.7634
  -527.4  1422.908846   -50.4100   -41.7074
  -519.2  1422.869784   -47.3200   -41.6518
  -510.9  1422.830721   -46.7400   -41.5968
  -502.7  1422.791659   -30.1100   -41.5423
  -494.5  1422.752596   -16.3000   -41.4883
  -486.3  1422.713534   -18.4200   -41.4348
  -478.1  1422.674471   -28.0200   -41.3819
  -469.8  1422.635409   -26.6900   -41.3295
  -461.6  1422.596346   -19.4000   -41.2778
  -453.4  1422.557284   -33.0900   -41.2266
  -445.2  1422.518221   -44.9200   -41.1760
  -437.0  1422.479159   -46.4700   -41.1260
  -428.7  1422.440096   -49.0900   -41.0766
  -420.5  1422.401034   -39.7800   -41.0279
  -412.3  1422.361971   -28.6000   -40.9799
  -404.1  1422.322909   -25.8700   -40.9324
  -395.9  1422.283846   -20.7700   -40.8857
  -387.6  1422.244784   -19.8000   -40.8396
  -379.4  1422.205721   -12.9500   -40.7943
  -371.2  1422.166659    -4.0620   -40.7496
  -363.0  1422.127596   -16.7000   -40.7056
  -354.7  1422.088534   -28.7800   -40.6624
  -346.5  1422.049471   -32.3000   -40.6199
  -338.3  1422.010409   -35.3000   -40.5781
  -330.1  1421.971346   -34.8300   -40.5371
  -321.8  1421.932284   -34.1900   -40.4968
  -313.6  1421.893221   -36.0700   -40.4573
  -305.4  1421.854159   -34.7500   -40.4186
  -297.2  1421.815096   -25.9100   -40.3807
  -288.9  1421.776034   -13.2700   -40.3435
  -280.7  1421.736971   -12.9100   -40.3072
  -272.5  1421.697909   -19.1800   -40.2717
  -264.2  1421.658846   -22.4300   -40.2370
  -256.0  1421.619784   -27.7100   -40.2031
  -247.8  1421.580721   -26.3800   -40.1701
  -239.5  1421.541659   -29.0300   -40.1379
  -231.3  1421.502596   -42.2300   -40.1065
  -223.1  1421.463534   -50.4500   -40.0760
  -214.8  1421.424471   -43.6300   -40.0464
  -206.6  1421.385409   -40.5100   -40.0176
  -198.4  1421.346346   -46.0200   -39.9898
  -190.1  1421.307284   -53.9800   -39.9628
  -181.9  1421.268221   -59.0000   -39.9367
  -173.7  1421.229159   -46.8200   -39.9115
  -165.4  1421.190096   -35.1500   -39.8871
  -157.2  1421.151034   -26.4000   -39.8637
  -149.0  1421.111971   -23.5700   -39.8412
  -140.7  1421.072909   -38.5800   -39.8197
  -132.5  1421.033846   -70.3300   -39.7990
  -124.3  1420.994784  -110.2000   -39.7793
  -116.0  1420.955721  -113.9000   -39.7605
  -107.8  1420.916659   -83.0700   -39.7426
   -99.5  1420.877596   -78.3700   -39.7257
   -91.3  1420.838534   -91.7100   -39.7097
   -83.1  1420.799471   -85.6500   -39.6947
   -74.8  1420.760409   -87.1500   -39.6806
   -66.6  1420.721346   -90.1900   -39.6675
   -58.3  1420.682284   -84.1100   -39.6554
   -50.1  1420.643221   -95.3700   -39.6442
   -41.9  1420.604159  -116.9000   -39.6339
   -33.6  1420.565096  -186.2000   -39.6247
   -25.4  1420.526034  -348.7000   -39.6164
   -17.1  1420.486971  -500.0000   -39.6090
    -8.9  1420.447909  -773.5000   -39.6027
    -0.6  1420.408846  -956.3000   -39.5973
     7.6  1420.369784  -479.5000   -39.5929
    15.8  1420.330721    90.5700   -39.5895
    24.1  1420.291659   312.3000   -39.5870
    32.3  1420.252596   611.6000   -39.5856
    40.6  1420.213534  1053.0000   -39.5851
    48.8  1420.174471  1482.0000   -39.5856
    57.1  1420.135409  1735.0000   -39.5871
    65.3  1420.096346  1722.0000   -39.5896
    73.6  1420.057284  1583.0000   -39.5931
    81.8  1420.018221  1429.0000   -39.5975
    90.1  1419.979159  1271.0000   -39.6030
    98.3  1419.940096  1144.0000   -39.6094
   106.6  1419.901034  1076.0000   -39.6168
   114.8  1419.861971  1037.0000   -39.6252
   123.1  1419.822909  1000.0000   -39.6346
   131.3  1419.783846   962.5000   -39.6449
   139.6  1419.744784   918.2000   -39.6563
   147.8  1419.705721   857.2000   -39.6686
   156.1  1419.666659   793.3000   -39.6819
   164.3  1419.627596   758.5000   -39.6962
   172.6  1419.588534   740.5000   -39.7114
   180.8  1419.549471   707.3000   -39.7276
   189.1  1419.510409   678.0000   -39.7448
   197.4  1419.471346   692.4000   -39.7630
   205.6  1419.432284   729.3000   -39.7821
   213.9  1419.393221   764.0000   -39.8022
   222.1  1419.354159   803.1000   -39.8232
   230.4  1419.315096   822.5000   -39.8452
   238.6  1419.276034   843.9000   -39.8681
   246.9  1419.236971   878.8000   -39.8920
   255.2  1419.197909   889.4000   -39.9169
   263.4  1419.158846   897.5000   -39.9427
   271.7  1419.119784   915.2000   -39.9694
   279.9  1419.080721   944.3000   -39.9970
   288.2  1419.041659  1016.0000   -40.0256
   296.5  1419.002596  1117.0000   -40.0551
   304.7  1418.963534  1198.0000   -40.0855
   313.0  1418.924471  1243.0000   -40.1168
   321.2  1418.885409  1268.0000   -40.1490
   329.5  1418.846346  1322.0000   -40.1821
   337.8  1418.807284  1412.0000   -40.2162
   346.0  1418.768221  1473.0000   -40.2511
   354.3  1418.729159  1520.0000   -40.2869
   362.6  1418.690096  1582.0000   -40.3235
   370.8  1418.651034  1615.0000   -40.3611
   379.1  1418.611971  1616.0000   -40.3995
   387.4  1418.572909  1624.0000   -40.4387
   395.6  1418.533846  1702.0000   -40.4788
   403.9  1418.494784  1888.0000   -40.5198
   412.2  1418.455721  2134.0000   -40.5616
   420.4  1418.416659  2374.0000   -40.6042
   428.7  1418.377596  2458.0000   -40.6476
   437.0  1418.338534  2123.0000   -40.6918
   445.2  1418.299471  1364.0000   -40.7369
   453.5  1418.260409   609.3000   -40.7827
   461.8  1418.221346   189.3000   -40.8293
   470.0  1418.182284    50.8500   -40.8767
   478.3  1418.143221    14.9200   -40.9249
   486.6  1418.104159   -19.3700   -40.9738
   494.8  1418.065096   -41.7000   -41.0235
   503.1  1418.026034   -41.1600   -41.0739
   511.4  1417.986971   -39.8200   -41.1250
   519.7  1417.947909   -24.3200   -41.1769
   527.9  1417.908846    -0.0317   -41.2295
   536.2  1417.869784     3.7780   -41.2828
   544.5  1417.830721    -8.2220   -41.3367
   552.8  1417.791659   -24.8700   -41.3913
   561.0  1417.752596   -22.8700   -41.4467
   569.3  1417.713534    -7.0620   -41.5026
   577.6  1417.674471    -9.2720   -41.5592
   585.9  1417.635409   -18.7500   -41.6165
   594.1  1417.596346   -12.1600   -41.6743
   602.4  1417.557284    11.5500   -41.7328
   610.7  1417.518221    18.7200   -41.7919
   619.0  1417.479159    -4.0320   -41.8516
   627.3  1417.440096   -15.9500   -41.9118
   635.5  1417.401034   -13.9000   -41.9726
   643.8  1417.361971    -9.6620   -42.0339
   652.1  1417.322909    -4.8220   -42.0958
   660.4  1417.283846   -19.3500   -42.1582
   668.7  1417.244784   -42.1900   -42.2212
   676.9  1417.205721   -52.5400   -42.2846
   685.2  1417.166659   -62.1300   -42.3484
   693.5  1417.127596   -71.7000   -42.4128
   701.8  1417.088534   -49.5100   -42.4776
   710.1  1417.049471   -17.4300   -42.5429
   718.4  1417.010409   -18.5400   -42.6086
   726.6  1416.971346   -44.7000   -42.6747
   734.9  1416.932284   -80.7400   -42.7412
   743.2  1416.893221   -95.8900   -42.8080
   751.5  1416.854159   -74.2700   -42.8753
   759.8  1416.815096   -56.1700   -42.9429
   768.1  1416.776034   -66.3000   -43.0108
   776.4  1416.736971   -72.9700   -43.0790
   784.6  1416.697909   -69.9100   -43.1476
   792.9  1416.658846   -89.1200   -43.2164
   801.2  1416.619784  -101.5000   -43.2855
   809.5  1416.580721   -94.7200   -43.3549
   817.8  1416.541659  -110.2000   -43.4245
   826.1  1416.502596  -115.3000   -43.4943
   834.4  1416.463534   -86.9500   -43.5643
   842.7  1416.424471   -78.2900   -43.6345
   851.0  1416.385409   -96.7900   -43.7049
   859.2  1416.346346  -102.6000   -43.7754
   867.5  1416.307284   -95.4000   -43.8461
   875.8  1416.268221   -93.5900   -43.9168
   884.1  1416.229159   -79.0400   -43.9877
   892.4  1416.190096   -49.9000   -44.0587
   900.7  1416.151034   -52.5300   -44.1297
   909.0  1416.111971   -71.3100   -44.2007
   917.3  1416.072909   -58.8800   -44.2718
   925.6  1416.033846   -50.8700   -44.3429
   933.9  1415.994784   -66.1800   -44.4140
   942.2  1415.955721   -80.7700   -44.4850
   950.5  1415.916659   -96.6800   -44.5559
   958.8  1415.877596   -98.2600   -44.6268
   967.1  1415.838534   -78.6600   -44.6977
   975.4  1415.799471   -65.1200   -44.7683
   983.7  1415.760409   -40.0800   -44.8389
   992.0  1415.721346    -8.9720   -44.9093
  1000.3  1415.682284    -6.7220   -44.9795
  1008.6  1415.643221   -26.3900   -45.0495
  1016.9  1415.604159   -59.8000   -45.1193
  1025.2  1415.565096   -77.0400   -45.1889
  1033.5  1415.526034   -83.1300   -45.2582
  1041.8  1415.486971   -72.2700   -45.3272
  1050.1  1415.447909   -31.8800   -45.3959
  1058.4  1415.408846   -15.4500   -45.4642
  1066.7  1415.369784   -14.2100   -45.5323
  1075.0  1415.330721   -20.9600   -45.5999
  1083.3  1415.291659   -22.5100   -45.6672
  1091.6  1415.252596     2.2380   -45.7340
  1099.9  1415.213534    -3.6120   -45.8004
  1108.2  1415.174471   -21.7400   -45.8663
  1116.5  1415.135409    -9.5220   -45.9317
  1124.8  1415.096346     3.1380   -45.9967
  1133.1  1415.057284    -0.1817   -46.0611
  1141.4  1415.018221    -6.7620   -46.1249
  1149.7  1414.979159     0.0683   -46.1881
  1158.1  1414.940096     7.3580   -46.2507
  1166.4  1414.901034    -4.3620   -46.3127
  1174.7  1414.861971   -23.3700   -46.3741
  1183.0  1414.822909   -26.5100   -46.4347
  1191.3  1414.783846   -19.8100   -46.4947
  1199.6  1414.744784    -6.8620   -46.5539
  1207.9  1414.705721    20.8300   -46.6123
  1216.2  1414.666659    14.1800   -46.6700
  1224.5  1414.627596   -27.6800   -46.7268
  1232.8  1414.588534   -35.9800   -46.7829
  1241.2  1414.549471   -14.8900   -46.8380
  1249.5  1414.510409   -10.0000   -46.8922
  1257.8  1414.471346   -31.6900   -46.9456
  1266.1  1414.432284   -48.9700   -46.9980
  1274.4  1414.393221   -53.2300   -47.0494
  1282.7  1414.354159   -63.5400   -47.0998
  1291.0  1414.315096   -67.7600   -47.1492
  1299.4  1414.276034   -62.4300   -47.1976
  1307.7  1414.236971   -64.4100   -47.2448
  1316.0  1414.197909   -70.2600   -47.2910
  1324.3  1414.158846   -75.9700   -47.3360
  1332.6  1414.119784   -67.7100   -47.3798
  1340.9  1414.080721   -41.9500   -47.4225
  1349.3  1414.041659   -38.5900   -47.4639
  1357.6  1414.002596   -52.7900   -47.5041
  1365.9  1413.963534   -62.7100   -47.5430
  1374.2  1413.924471   -67.3700   -47.5805
  1382.5  1413.885409   -53.5900   -47.6168
  1390.9  1413.846346   -30.1400   -47.6517
  1399.2  1413.807284   -28.9300   -47.6851
  1407.5  1413.768221   -52.9700   -47.7172
  1415.8  1413.729159   -64.8900   -47.7477
  1424.2  1413.690096   -58.9000   -47.7768
  1432.5  1413.651034   -55.9600   -47.8044
  1440.8  1413.611971   -59.0100   -47.8304
  1449.1  1413.572909   -55.3800   -47.8548
  1457.5  1413.533846   -55.1200   -47.8776
  1465.8  1413.494784   -68.4600   -47.8988
  1474.1  1413.455721   -68.7900   -47.9183
  1482.4  1413.416659   -60.4800   -47.9361
  1490.8  1413.377596   -53.7500   -47.9521
  1499.1  1413.338534   -47.8100   -47.9664
  1507.4  1413.299471   -48.8300   -47.9788
  1515.7  1413.260409   -44.7200   -47.9894
  1524.1  1413.221346   -52.7200   -47.9982
  1532.4  1413.182284   -80.0700   -48.0050
  1540.7  1413.143221   -92.2100   -48.0099
  1549.1  1413.104159   -88.6100   -48.0129
  1557.4  1413.065096   -82.3300   -48.0138
  1565.7  1413.026034   -61.8400   -48.0127
  1574.0  1412.986971   -42.7500   -48.0095
  1582.4  1412.947909   -45.7200   -48.0042
  1590.7  1412.908846   -52.6100   -47.9967
  1599.0  1412.869784   -42.8800   -47.9871
  1607.4  1412.830721   -26.0100   -47.9753
  1615.7  1412.791659   -29.8000   -47.9613
  1624.0  1412.752596   -49.0100   -47.9449
  1632.4  1412.713534   -56.9200   -47.9263
  1640.7  1412.674471   -50.3100   -47.9053
  1649.0  1412.635409   -48.3800   -47.8819
  1657.4  1412.596346   -40.9400   -47.8561
  1665.7  1412.557284   -30.2600   -47.8278
